; WAVELENGTH MAT._REFRACTIVE_INDEX MAT._ABSORPTION
300.02400 1.53999 0.00000 
300.29907 1.53992 0.00000 
300.57415 1.53985 0.00000 
300.84922 1.53977 0.00000 
301.12430 1.53970 0.00000 
301.39937 1.53963 0.00000 
301.67444 1.53956 0.00000 
301.94952 1.53949 0.00000 
302.22459 1.53941 0.00000 
302.49967 1.53934 0.00000 
302.77474 1.53927 0.00000 
303.04981 1.53920 0.00000 
303.32489 1.53913 0.00000 
303.59996 1.53906 0.00000 
303.87504 1.53899 0.00000 
304.15011 1.53892 0.00000 
304.42518 1.53885 0.00000 
304.70026 1.53878 0.00000 
304.97533 1.53871 0.00000 
305.25041 1.53864 0.00000 
305.52548 1.53857 0.00000 
305.80055 1.53850 0.00000 
306.07563 1.53843 0.00000 
306.35070 1.53836 0.00000 
306.62578 1.53829 0.00000 
306.90085 1.53822 0.00000 
307.17592 1.53815 0.00000 
307.45100 1.53808 0.00000 
307.72607 1.53802 0.00000 
308.00115 1.53795 0.00000 
308.27622 1.53788 0.00000 
308.55130 1.53781 0.00000 
308.82637 1.53775 0.00000 
309.10144 1.53768 0.00000 
309.37652 1.53761 0.00000 
309.65159 1.53755 0.00000 
309.92667 1.53748 0.00000 
310.20174 1.53741 0.00000 
310.47681 1.53735 0.00000 
310.75189 1.53728 0.00000 
311.02696 1.53721 0.00000 
311.30204 1.53715 0.00000 
311.57711 1.53708 0.00000 
311.85218 1.53702 0.00000 
312.12726 1.53695 0.00000 
312.40233 1.53689 0.00000 
312.67741 1.53682 0.00000 
312.95248 1.53676 0.00000 
313.22755 1.53669 0.00000 
313.50263 1.53663 0.00000 
313.77770 1.53656 0.00000 
314.05278 1.53650 0.00000 
314.32785 1.53644 0.00000 
314.60292 1.53637 0.00000 
314.87800 1.53631 0.00000 
315.15307 1.53625 0.00000 
315.42815 1.53618 0.00000 
315.70322 1.53612 0.00000 
315.97829 1.53606 0.00000 
316.25337 1.53599 0.00000 
316.52844 1.53593 0.00000 
316.80352 1.53587 0.00000 
317.07859 1.53581 0.00000 
317.35366 1.53575 0.00000 
317.62874 1.53568 0.00000 
317.90381 1.53562 0.00000 
318.17889 1.53556 0.00000 
318.45396 1.53550 0.00000 
318.72903 1.53544 0.00000 
319.00411 1.53538 0.00000 
319.27918 1.53532 0.00000 
319.55426 1.53525 0.00000 
319.82933 1.53519 0.00000 
320.10440 1.53513 0.00000 
320.37948 1.53507 0.00000 
320.65455 1.53501 0.00000 
320.92963 1.53495 0.00000 
321.20470 1.53489 0.00000 
321.47977 1.53483 0.00000 
321.75485 1.53477 0.00000 
322.02992 1.53471 0.00000 
322.30500 1.53466 0.00000 
322.58007 1.53460 0.00000 
322.85515 1.53454 0.00000 
323.13022 1.53448 0.00000 
323.40529 1.53442 0.00000 
323.68037 1.53436 0.00000 
323.95544 1.53430 0.00000 
324.23052 1.53424 0.00000 
324.50559 1.53419 0.00000 
324.78066 1.53413 0.00000 
325.05574 1.53407 0.00000 
325.33081 1.53401 0.00000 
325.60589 1.53396 0.00000 
325.88096 1.53390 0.00000 
326.15603 1.53384 0.00000 
326.43111 1.53378 0.00000 
326.70618 1.53373 0.00000 
326.98126 1.53367 0.00000 
327.25633 1.53361 0.00000 
327.53140 1.53356 0.00000 
327.80648 1.53350 0.00000 
328.08155 1.53345 0.00000 
328.35663 1.53339 0.00000 
328.63170 1.53333 0.00000 
328.90677 1.53328 0.00000 
329.18185 1.53322 0.00000 
329.45692 1.53317 0.00000 
329.73200 1.53311 0.00000 
330.00707 1.53306 0.00000 
330.28214 1.53300 0.00000 
330.55722 1.53295 0.00000 
330.83229 1.53289 0.00000 
331.10737 1.53284 0.00000 
331.38244 1.53278 0.00000 
331.65751 1.53273 0.00000 
331.93259 1.53267 0.00000 
332.20766 1.53262 0.00000 
332.48274 1.53257 0.00000 
332.75781 1.53251 0.00000 
333.03288 1.53246 0.00000 
333.30796 1.53240 0.00000 
333.58303 1.53235 0.00000 
333.85811 1.53230 0.00000 
334.13318 1.53225 0.00000 
334.40825 1.53219 0.00000 
334.68333 1.53214 0.00000 
334.95840 1.53209 0.00000 
335.23348 1.53203 0.00000 
335.50855 1.53198 0.00000 
335.78362 1.53193 0.00000 
336.05870 1.53188 0.00000 
336.33377 1.53182 0.00000 
336.60885 1.53177 0.00000 
336.88392 1.53172 0.00000 
337.15899 1.53167 0.00000 
337.43407 1.53162 0.00000 
337.70914 1.53157 0.00000 
337.98422 1.53151 0.00000 
338.25929 1.53146 0.00000 
338.53437 1.53141 0.00000 
338.80944 1.53136 0.00000 
339.08451 1.53131 0.00000 
339.35959 1.53126 0.00000 
339.63466 1.53121 0.00000 
339.90974 1.53116 0.00000 
340.18481 1.53111 0.00000 
340.45988 1.53106 0.00000 
340.73496 1.53101 0.00000 
341.01003 1.53096 0.00000 
341.28511 1.53091 0.00000 
341.56018 1.53086 0.00000 
341.83525 1.53081 0.00000 
342.11033 1.53076 0.00000 
342.38540 1.53071 0.00000 
342.66048 1.53066 0.00000 
342.93555 1.53061 0.00000 
343.21062 1.53056 0.00000 
343.48570 1.53051 0.00000 
343.76077 1.53046 0.00000 
344.03585 1.53042 0.00000 
344.31092 1.53037 0.00000 
344.58599 1.53032 0.00000 
344.86107 1.53027 0.00000 
345.13614 1.53022 0.00000 
345.41122 1.53017 0.00000 
345.68629 1.53013 0.00000 
345.96136 1.53008 0.00000 
346.23644 1.53003 0.00000 
346.51151 1.52998 0.00000 
346.78659 1.52993 0.00000 
347.06166 1.52989 0.00000 
347.33673 1.52984 0.00000 
347.61181 1.52979 0.00000 
347.88688 1.52975 0.00000 
348.16196 1.52970 0.00000 
348.43703 1.52965 0.00000 
348.71210 1.52961 0.00000 
348.98718 1.52956 0.00000 
349.26225 1.52951 0.00000 
349.53733 1.52947 0.00000 
349.81240 1.52942 0.00000 
350.08747 1.52937 0.00000 
350.36255 1.52933 0.00000 
350.63762 1.52928 0.00000 
350.91270 1.52924 0.00000 
351.18777 1.52919 0.00000 
351.46284 1.52914 0.00000 
351.73792 1.52910 0.00000 
352.01299 1.52905 0.00000 
352.28807 1.52901 0.00000 
352.56314 1.52896 0.00000 
352.83822 1.52892 0.00000 
353.11329 1.52887 0.00000 
353.38836 1.52883 0.00000 
353.66344 1.52878 0.00000 
353.93851 1.52874 0.00000 
354.21359 1.52869 0.00000 
354.48866 1.52865 0.00000 
354.76373 1.52860 0.00000 
355.03881 1.52856 0.00000 
355.31388 1.52852 0.00000 
355.58896 1.52847 0.00000 
355.86403 1.52843 0.00000 
356.13910 1.52838 0.00000 
356.41418 1.52834 0.00000 
356.68925 1.52830 0.00000 
356.96433 1.52825 0.00000 
357.23940 1.52821 0.00000 
357.51447 1.52817 0.00000 
357.78955 1.52812 0.00000 
358.06462 1.52808 0.00000 
358.33970 1.52804 0.00000 
358.61477 1.52799 0.00000 
358.88984 1.52795 0.00000 
359.16492 1.52791 0.00000 
359.43999 1.52786 0.00000 
359.71507 1.52782 0.00000 
359.99014 1.52778 0.00000 
360.26521 1.52774 0.00000 
360.54029 1.52769 0.00000 
360.81536 1.52765 0.00000 
361.09044 1.52761 0.00000 
361.36551 1.52757 0.00000 
361.64058 1.52753 0.00000 
361.91566 1.52748 0.00000 
362.19073 1.52744 0.00000 
362.46581 1.52740 0.00000 
362.74088 1.52736 0.00000 
363.01595 1.52732 0.00000 
363.29103 1.52728 0.00000 
363.56610 1.52724 0.00000 
363.84118 1.52719 0.00000 
364.11625 1.52715 0.00000 
364.39132 1.52711 0.00000 
364.66640 1.52707 0.00000 
364.94147 1.52703 0.00000 
365.21655 1.52699 0.00000 
365.49162 1.52695 0.00000 
365.76669 1.52691 0.00000 
366.04177 1.52687 0.00000 
366.31684 1.52683 0.00000 
366.59192 1.52679 0.00000 
366.86699 1.52675 0.00000 
367.14207 1.52671 0.00000 
367.41714 1.52667 0.00000 
367.69221 1.52663 0.00000 
367.96729 1.52659 0.00000 
368.24236 1.52655 0.00000 
368.51744 1.52651 0.00000 
368.79251 1.52647 0.00000 
369.06758 1.52643 0.00000 
369.34266 1.52639 0.00000 
369.61773 1.52635 0.00000 
369.89281 1.52631 0.00000 
370.16788 1.52627 0.00000 
370.44295 1.52623 0.00000 
370.71803 1.52619 0.00000 
370.99310 1.52616 0.00000 
371.26818 1.52612 0.00000 
371.54325 1.52608 0.00000 
371.81832 1.52604 0.00000 
372.09340 1.52600 0.00000 
372.36847 1.52596 0.00000 
372.64355 1.52592 0.00000 
372.91862 1.52589 0.00000 
373.19369 1.52585 0.00000 
373.46877 1.52581 0.00000 
373.74384 1.52577 0.00000 
374.01892 1.52573 0.00000 
374.29399 1.52570 0.00000 
374.56906 1.52566 0.00000 
374.84414 1.52562 0.00000 
375.11921 1.52558 0.00000 
375.39429 1.52555 0.00000 
375.66936 1.52551 0.00000 
375.94443 1.52547 0.00000 
376.21951 1.52543 0.00000 
376.49458 1.52540 0.00000 
376.76966 1.52536 0.00000 
377.04473 1.52532 0.00000 
377.31980 1.52529 0.00000 
377.59488 1.52525 0.00000 
377.86995 1.52521 0.00000 
378.14503 1.52518 0.00000 
378.42010 1.52514 0.00000 
378.69517 1.52510 0.00000 
378.97025 1.52507 0.00000 
379.24532 1.52503 0.00000 
379.52040 1.52499 0.00000 
379.79547 1.52496 0.00000 
380.07054 1.52492 0.00000 
380.34562 1.52489 0.00000 
380.62069 1.52485 0.00000 
380.89577 1.52481 0.00000 
381.17084 1.52478 0.00000 
381.44591 1.52474 0.00000 
381.72099 1.52471 0.00000 
381.99606 1.52467 0.00000 
382.27114 1.52464 0.00000 
382.54621 1.52460 0.00000 
382.82129 1.52456 0.00000 
383.09636 1.52453 0.00000 
383.37143 1.52449 0.00000 
383.64651 1.52446 0.00000 
383.92158 1.52442 0.00000 
384.19666 1.52439 0.00000 
384.47173 1.52435 0.00000 
384.74680 1.52432 0.00000 
385.02188 1.52428 0.00000 
385.29695 1.52425 0.00000 
385.57203 1.52422 0.00000 
385.84710 1.52418 0.00000 
386.12217 1.52415 0.00000 
386.39725 1.52411 0.00000 
386.67232 1.52408 0.00000 
386.94740 1.52404 0.00000 
387.22247 1.52401 0.00000 
387.49754 1.52398 0.00000 
387.77262 1.52394 0.00000 
388.04769 1.52391 0.00000 
388.32277 1.52387 0.00000 
388.59784 1.52384 0.00000 
388.87291 1.52381 0.00000 
389.14799 1.52377 0.00000 
389.42306 1.52374 0.00000 
389.69814 1.52371 0.00000 
389.97321 1.52367 0.00000 
390.24828 1.52364 0.00000 
390.52336 1.52361 0.00000 
390.79843 1.52357 0.00000 
391.07351 1.52354 0.00000 
391.34858 1.52351 0.00000 
391.62365 1.52347 0.00000 
391.89873 1.52344 0.00000 
392.17380 1.52341 0.00000 
392.44888 1.52337 0.00000 
392.72395 1.52334 0.00000 
392.99902 1.52331 0.00000 
393.27410 1.52328 0.00000 
393.54917 1.52324 0.00000 
393.82425 1.52321 0.00000 
394.09932 1.52318 0.00000 
394.37439 1.52315 0.00000 
394.64947 1.52311 0.00000 
394.92454 1.52308 0.00000 
395.19962 1.52305 0.00000 
395.47469 1.52302 0.00000 
395.74976 1.52299 0.00000 
396.02484 1.52295 0.00000 
396.29991 1.52292 0.00000 
396.57499 1.52289 0.00000 
396.85006 1.52286 0.00000 
397.12514 1.52283 0.00000 
397.40021 1.52280 0.00000 
397.67528 1.52276 0.00000 
397.95036 1.52273 0.00000 
398.22543 1.52270 0.00000 
398.50051 1.52267 0.00000 
398.77558 1.52264 0.00000 
399.05065 1.52261 0.00000 
399.32573 1.52258 0.00000 
399.60080 1.52254 0.00000 
399.87588 1.52251 0.00000 
400.15095 1.52248 0.00000 
400.42602 1.52245 0.00000 
400.70110 1.52242 0.00000 
400.97617 1.52239 0.00000 
401.25125 1.52236 0.00000 
401.52632 1.52233 0.00000 
401.80139 1.52230 0.00000 
402.07647 1.52227 0.00000 
402.35154 1.52224 0.00000 
402.62662 1.52221 0.00000 
402.90169 1.52218 0.00000 
403.17676 1.52215 0.00000 
403.45184 1.52212 0.00000 
403.72691 1.52209 0.00000 
404.00199 1.52206 0.00000 
404.27706 1.52203 0.00000 
404.55213 1.52200 0.00000 
404.82721 1.52197 0.00000 
405.10228 1.52194 0.00000 
405.37736 1.52191 0.00000 
405.65243 1.52188 0.00000 
405.92750 1.52185 0.00000 
406.20258 1.52182 0.00000 
406.47765 1.52179 0.00000 
406.75273 1.52176 0.00000 
407.02780 1.52173 0.00000 
407.30287 1.52170 0.00000 
407.57795 1.52167 0.00000 
407.85302 1.52164 0.00000 
408.12810 1.52161 0.00000 
408.40317 1.52158 0.00000 
408.67824 1.52155 0.00000 
408.95332 1.52153 0.00000 
409.22839 1.52150 0.00000 
409.50347 1.52147 0.00000 
409.77854 1.52144 0.00000 
410.05361 1.52141 0.00000 
410.32869 1.52138 0.00000 
410.60376 1.52135 0.00000 
410.87884 1.52132 0.00000 
411.15391 1.52130 0.00000 
411.42898 1.52127 0.00000 
411.70406 1.52124 0.00000 
411.97913 1.52121 0.00000 
412.25421 1.52118 0.00000 
412.52928 1.52115 0.00000 
412.80436 1.52113 0.00000 
413.07943 1.52110 0.00000 
413.35450 1.52107 0.00000 
413.62958 1.52104 0.00000 
413.90465 1.52101 0.00000 
414.17973 1.52099 0.00000 
414.45480 1.52096 0.00000 
414.72987 1.52093 0.00000 
415.00495 1.52090 0.00000 
415.28002 1.52087 0.00000 
415.55510 1.52085 0.00000 
415.83017 1.52082 0.00000 
416.10524 1.52079 0.00000 
416.38032 1.52076 0.00000 
416.65539 1.52074 0.00000 
416.93047 1.52071 0.00000 
417.20554 1.52068 0.00000 
417.48061 1.52066 0.00000 
417.75569 1.52063 0.00000 
418.03076 1.52060 0.00000 
418.30584 1.52057 0.00000 
418.58091 1.52055 0.00000 
418.85598 1.52052 0.00000 
419.13106 1.52049 0.00000 
419.40613 1.52047 0.00000 
419.68121 1.52044 0.00000 
419.95628 1.52041 0.00000 
420.23135 1.52039 0.00000 
420.50643 1.52036 0.00000 
420.78150 1.52033 0.00000 
421.05658 1.52031 0.00000 
421.33165 1.52028 0.00000 
421.60672 1.52025 0.00000 
421.88180 1.52023 0.00000 
422.15687 1.52020 0.00000 
422.43195 1.52017 0.00000 
422.70702 1.52015 0.00000 
422.98209 1.52012 0.00000 
423.25717 1.52010 0.00000 
423.53224 1.52007 0.00000 
423.80732 1.52004 0.00000 
424.08239 1.52002 0.00000 
424.35746 1.51999 0.00000 
424.63254 1.51997 0.00000 
424.90761 1.51994 0.00000 
425.18269 1.51991 0.00000 
425.45776 1.51989 0.00000 
425.73283 1.51986 0.00000 
426.00791 1.51984 0.00000 
426.28298 1.51981 0.00000 
426.55806 1.51979 0.00000 
426.83313 1.51976 0.00000 
427.10821 1.51973 0.00000 
427.38328 1.51971 0.00000 
427.65835 1.51968 0.00000 
427.93343 1.51966 0.00000 
428.20850 1.51963 0.00000 
428.48358 1.51961 0.00000 
428.75865 1.51958 0.00000 
429.03372 1.51956 0.00000 
429.30880 1.51953 0.00000 
429.58387 1.51951 0.00000 
429.85895 1.51948 0.00000 
430.13402 1.51946 0.00000 
430.40909 1.51943 0.00000 
430.68417 1.51941 0.00000 
430.95924 1.51938 0.00000 
431.23432 1.51936 0.00000 
431.50939 1.51933 0.00000 
431.78446 1.51931 0.00000 
432.05954 1.51928 0.00000 
432.33461 1.51926 0.00000 
432.60969 1.51924 0.00000 
432.88476 1.51921 0.00000 
433.15983 1.51919 0.00000 
433.43491 1.51916 0.00000 
433.70998 1.51914 0.00000 
433.98506 1.51911 0.00000 
434.26013 1.51909 0.00000 
434.53520 1.51907 0.00000 
434.81028 1.51904 0.00000 
435.08535 1.51902 0.00000 
435.36043 1.51899 0.00000 
435.63550 1.51897 0.00000 
435.91057 1.51895 0.00000 
436.18565 1.51892 0.00000 
436.46072 1.51890 0.00000 
436.73580 1.51887 0.00000 
437.01087 1.51885 0.00000 
437.28594 1.51883 0.00000 
437.56102 1.51880 0.00000 
437.83609 1.51878 0.00000 
438.11117 1.51876 0.00000 
438.38624 1.51873 0.00000 
438.66131 1.51871 0.00000 
438.93639 1.51869 0.00000 
439.21146 1.51866 0.00000 
439.48654 1.51864 0.00000 
439.76161 1.51862 0.00000 
440.03668 1.51859 0.00000 
440.31176 1.51857 0.00000 
440.58683 1.51855 0.00000 
440.86191 1.51852 0.00000 
441.13698 1.51850 0.00000 
441.41206 1.51848 0.00000 
441.68713 1.51845 0.00000 
441.96220 1.51843 0.00000 
442.23728 1.51841 0.00000 
442.51235 1.51838 0.00000 
442.78743 1.51836 0.00000 
443.06250 1.51834 0.00000 
443.33757 1.51832 0.00000 
443.61265 1.51829 0.00000 
443.88772 1.51827 0.00000 
444.16280 1.51825 0.00000 
444.43787 1.51823 0.00000 
444.71294 1.51820 0.00000 
444.98802 1.51818 0.00000 
445.26309 1.51816 0.00000 
445.53817 1.51814 0.00000 
445.81324 1.51811 0.00000 
446.08831 1.51809 0.00000 
446.36339 1.51807 0.00000 
446.63846 1.51805 0.00000 
446.91354 1.51802 0.00000 
447.18861 1.51800 0.00000 
447.46368 1.51798 0.00000 
447.73876 1.51796 0.00000 
448.01383 1.51794 0.00000 
448.28891 1.51791 0.00000 
448.56398 1.51789 0.00000 
448.83905 1.51787 0.00000 
449.11413 1.51785 0.00000 
449.38920 1.51783 0.00000 
449.66428 1.51780 0.00000 
449.93935 1.51778 0.00000 
450.21442 1.51776 0.00000 
450.48950 1.51774 0.00000 
450.76457 1.51772 0.00000 
451.03965 1.51770 0.00000 
451.31472 1.51767 0.00000 
451.58979 1.51765 0.00000 
451.86487 1.51763 0.00000 
452.13994 1.51761 0.00000 
452.41502 1.51759 0.00000 
452.69009 1.51757 0.00000 
452.96516 1.51755 0.00000 
453.24024 1.51752 0.00000 
453.51531 1.51750 0.00000 
453.79039 1.51748 0.00000 
454.06546 1.51746 0.00000 
454.34053 1.51744 0.00000 
454.61561 1.51742 0.00000 
454.89068 1.51740 0.00000 
455.16576 1.51738 0.00000 
455.44083 1.51736 0.00000 
455.71590 1.51733 0.00000 
455.99098 1.51731 0.00000 
456.26605 1.51729 0.00000 
456.54113 1.51727 0.00000 
456.81620 1.51725 0.00000 
457.09128 1.51723 0.00000 
457.36635 1.51721 0.00000 
457.64142 1.51719 0.00000 
457.91650 1.51717 0.00000 
458.19157 1.51715 0.00000 
458.46665 1.51713 0.00000 
458.74172 1.51711 0.00000 
459.01679 1.51709 0.00000 
459.29187 1.51707 0.00000 
459.56694 1.51705 0.00000 
459.84202 1.51702 0.00000 
460.11709 1.51700 0.00000 
460.39216 1.51698 0.00000 
460.66724 1.51696 0.00000 
460.94231 1.51694 0.00000 
461.21739 1.51692 0.00000 
461.49246 1.51690 0.00000 
461.76753 1.51688 0.00000 
462.04261 1.51686 0.00000 
462.31768 1.51684 0.00000 
462.59276 1.51682 0.00000 
462.86783 1.51680 0.00000 
463.14290 1.51678 0.00000 
463.41798 1.51676 0.00000 
463.69305 1.51674 0.00000 
463.96813 1.51672 0.00000 
464.24320 1.51670 0.00000 
464.51827 1.51668 0.00000 
464.79335 1.51666 0.00000 
465.06842 1.51664 0.00000 
465.34350 1.51662 0.00000 
465.61857 1.51661 0.00000 
465.89364 1.51659 0.00000 
466.16872 1.51657 0.00000 
466.44379 1.51655 0.00000 
466.71887 1.51653 0.00000 
466.99394 1.51651 0.00000 
467.26901 1.51649 0.00000 
467.54409 1.51647 0.00000 
467.81916 1.51645 0.00000 
468.09424 1.51643 0.00000 
468.36931 1.51641 0.00000 
468.64438 1.51639 0.00000 
468.91946 1.51637 0.00000 
469.19453 1.51635 0.00000 
469.46961 1.51633 0.00000 
469.74468 1.51631 0.00000 
470.01975 1.51630 0.00000 
470.29483 1.51628 0.00000 
470.56990 1.51626 0.00000 
470.84498 1.51624 0.00000 
471.12005 1.51622 0.00000 
471.39513 1.51620 0.00000 
471.67020 1.51618 0.00000 
471.94527 1.51616 0.00000 
472.22035 1.51614 0.00000 
472.49542 1.51613 0.00000 
472.77050 1.51611 0.00000 
473.04557 1.51609 0.00000 
473.32064 1.51607 0.00000 
473.59572 1.51605 0.00000 
473.87079 1.51603 0.00000 
474.14587 1.51601 0.00000 
474.42094 1.51599 0.00000 
474.69601 1.51598 0.00000 
474.97109 1.51596 0.00000 
475.24616 1.51594 0.00000 
475.52124 1.51592 0.00000 
475.79631 1.51590 0.00000 
476.07138 1.51588 0.00000 
476.34646 1.51587 0.00000 
476.62153 1.51585 0.00000 
476.89661 1.51583 0.00000 
477.17168 1.51581 0.00000 
477.44675 1.51579 0.00000 
477.72183 1.51577 0.00000 
477.99690 1.51576 0.00000 
478.27198 1.51574 0.00000 
478.54705 1.51572 0.00000 
478.82212 1.51570 0.00000 
479.09720 1.51568 0.00000 
479.37227 1.51567 0.00000 
479.64735 1.51565 0.00000 
479.92242 1.51563 0.00000 
480.19749 1.51561 0.00000 
480.47257 1.51559 0.00000 
480.74764 1.51558 0.00000 
481.02272 1.51556 0.00000 
481.29779 1.51554 0.00000 
481.57286 1.51552 0.00000 
481.84794 1.51551 0.00000 
482.12301 1.51549 0.00000 
482.39809 1.51547 0.00000 
482.67316 1.51545 0.00000 
482.94823 1.51543 0.00000 
483.22331 1.51542 0.00000 
483.49838 1.51540 0.00000 
483.77346 1.51538 0.00000 
484.04853 1.51536 0.00000 
484.32360 1.51535 0.00000 
484.59868 1.51533 0.00000 
484.87375 1.51531 0.00000 
485.14883 1.51530 0.00000 
485.42390 1.51528 0.00000 
485.69897 1.51526 0.00000 
485.97405 1.51524 0.00000 
486.24912 1.51523 0.00000 
486.52420 1.51521 0.00000 
486.79927 1.51519 0.00000 
487.07435 1.51517 0.00000 
487.34942 1.51516 0.00000 
487.62449 1.51514 0.00000 
487.89957 1.51512 0.00000 
488.17464 1.51511 0.00000 
488.44972 1.51509 0.00000 
488.72479 1.51507 0.00000 
488.99986 1.51506 0.00000 
489.27494 1.51504 0.00000 
489.55001 1.51502 0.00000 
489.82509 1.51500 0.00000 
490.10016 1.51499 0.00000 
490.37523 1.51497 0.00000 
490.65031 1.51495 0.00000 
490.92538 1.51494 0.00000 
491.20046 1.51492 0.00000 
491.47553 1.51490 0.00000 
491.75060 1.51489 0.00000 
492.02568 1.51487 0.00000 
492.30075 1.51485 0.00000 
492.57583 1.51484 0.00000 
492.85090 1.51482 0.00000 
493.12597 1.51480 0.00000 
493.40105 1.51479 0.00000 
493.67612 1.51477 0.00000 
493.95120 1.51475 0.00000 
494.22627 1.51474 0.00000 
494.50134 1.51472 0.00000 
494.77642 1.51471 0.00000 
495.05149 1.51469 0.00000 
495.32657 1.51467 0.00000 
495.60164 1.51466 0.00000 
495.87671 1.51464 0.00000 
496.15179 1.51462 0.00000 
496.42686 1.51461 0.00000 
496.70194 1.51459 0.00000 
496.97701 1.51458 0.00000 
497.25208 1.51456 0.00000 
497.52716 1.51454 0.00000 
497.80223 1.51453 0.00000 
498.07731 1.51451 0.00000 
498.35238 1.51450 0.00000 
498.62745 1.51448 0.00000 
498.90253 1.51446 0.00000 
499.17760 1.51445 0.00000 
499.45268 1.51443 0.00000 
499.72775 1.51442 0.00000 
500.00282 1.51440 0.00000 
500.27790 1.51438 0.00000 
500.55297 1.51437 0.00000 
500.82805 1.51435 0.00000 
501.10312 1.51434 0.00000 
501.37820 1.51432 0.00000 
501.65327 1.51431 0.00000 
501.92834 1.51429 0.00000 
502.20342 1.51427 0.00000 
502.47849 1.51426 0.00000 
502.75357 1.51424 0.00000 
